File: lib/math_models/mathematica/pidfiles/PID085_xrd.csv
0.45,418
0.458,356
0.466,350
0.474,342
0.482,329
0.49,425
0.498,440
0.506,325
0.514,302
0.522,304
0.53,302
0.538,290
0.546,320
0.554,288
0.562,306
0.57,318
0.578,304
0.586,319
0.594,328
0.602,410
0.61,659
0.618,4157
0.626,1887
0.634,442
0.642,332
0.65,285
0.658,560
0.666,885
0.674,299
0.682,265
0.69,261
0.698,228
0.706,237
0.714,248
0.722,249
0.73,274
0.738,438
0.746,229
0.754,218
0.762,273
0.77,222
0.778,230
0.786,232
0.794,227
0.802,228
0.81,242
0.818,219
0.826,229
0.834,225
0.842,241
0.85,263
0.858,297
0.866,344
0.874,834
0.882,4031
0.89,1306
0.898,349
0.906,259
0.914,223
0.922,209
0.93,240
0.938,230
0.946,220
0.954,214
0.962,209
0.97,193
0.978,186
0.986,224
0.994,242
1.002,208
1.01,205
1.018,217
1.026,201
1.034,214
1.042,224
1.05,204
1.058,224
1.066,237
1.074,305
1.082,263
1.09,203
1.098,233
1.106,220
1.114,291
1.122,401
1.13,289
1.138,263
1.146,233
1.154,216
1.162,253
1.17,325
1.178,281
1.186,278
1.194,290
1.202,297
1.21,367
1.218,365
1.226,513
1.234,1133
1.242,4962
1.25,4783
1.258,4970
1.266,1004
1.274,498
1.282,428
1.29,515
1.298,562
1.306,794
1.314,378
1.322,311
1.33,292
1.338,291
1.346,280
1.354,305
1.362,348
1.37,384
1.378,628
1.386,1992
1.394,2782
1.402,1701
1.41,680
1.418,399
1.426,332
1.434,334
1.442,348
1.45,311
1.458,285
1.466,329
1.474,403
1.482,316
1.49,283
1.498,306
1.506,288
1.514,357
1.522,314
1.53,337
1.538,323
1.546,252
1.554,262
1.562,285
1.57,306
1.578,262
1.586,256
1.594,272
1.602,291
1.61,276
1.618,325
1.626,379
1.634,935
1.642,2154
1.65,1041
1.658,543
1.666,320
1.674,305
1.682,298
1.69,298
1.698,384
1.706,344
1.714,333
1.722,303
1.73,302
1.738,318
1.746,429
1.754,1535
1.762,1253
1.77,485
1.778,375
1.786,332
1.794,298
1.802,275
1.81,257
1.818,212
1.826,209
1.834,231
1.842,285
1.85,332
1.858,268
1.866,223
1.874,243
1.882,208
1.89,224
1.898,241
1.906,213
1.914,208
1.922,237
1.93,231
1.938,265
1.946,255
1.954,452
1.962,1483
1.97,1000
1.978,749
1.986,1006
1.994,437
2.002,323
2.01,229
2.018,223
2.026,228
2.034,169
2.042,182
2.05,201
2.058,218
2.066,409
2.074,297
2.082,195
2.09,179
2.098,189
2.106,150
2.114,147
2.122,181
2.13,189
2.138,172
2.146,294
2.154,232
2.162,234
2.17,281
2.178,198
2.186,183
2.194,145
2.202,164
2.21,161
2.218,158
2.226,222
2.234,426
2.242,342
2.25,202
2.258,168
2.266,151
2.274,132
2.282,152
2.29,137
2.298,151
2.306,141
2.314,245
2.322,486
2.33,314
2.338,169
2.346,141
2.354,154
2.362,129
2.37,147
2.378,127
2.386,145
2.394,118
2.402,123
2.41,129
2.418,123
2.426,127
2.434,111
2.442,123
2.45,142
2.458,144
2.466,143
2.474,169
2.482,248
2.49,335
2.498,230
2.506,163
2.514,153
2.522,142
2.53,123