File: lib/math_models/mathematica/pidfiles/PID082_xrd.csv
0.45,414
0.458,427
0.466,375
0.474,394
0.482,389
0.49,384
0.498,340
0.506,385
0.514,327
0.522,335
0.53,297
0.538,334
0.546,306
0.554,312
0.562,348
0.57,355
0.578,321
0.586,365
0.594,380
0.602,639
0.61,3502
0.618,3134
0.626,650
0.634,370
0.642,318
0.65,301
0.658,293
0.666,337
0.674,299
0.682,263
0.69,278
0.698,228
0.706,253
0.714,266
0.722,240
0.73,235
0.738,251
0.746,280
0.754,258
0.762,233
0.77,221
0.778,248
0.786,224
0.794,232
0.802,254
0.81,219
0.818,212
0.826,266
0.834,250
0.842,274
0.85,316
0.858,419
0.866,698
0.874,3571
0.882,3118
0.89,587
0.898,305
0.906,242
0.914,249
0.922,228
0.93,230
0.938,241
0.946,229
0.954,222
0.962,222
0.97,216
0.978,206
0.986,196
0.994,216
1.002,218
1.01,212
1.018,223
1.026,222
1.034,234
1.042,208
1.05,262
1.058,353
1.066,486
1.074,288
1.082,233
1.09,248
1.098,226
1.106,234
1.114,248
1.122,234
1.13,256
1.138,284
1.146,258
1.154,270
1.162,275
1.17,288
1.178,312
1.186,367
1.194,383
1.202,428
1.21,533
1.218,842
1.226,2749
1.234,6867
1.242,2862
1.25,3714
1.258,4302
1.266,922
1.274,514
1.282,409
1.29,358
1.298,294
1.306,319
1.314,330
1.322,300
1.33,305
1.338,334
1.346,327
1.354,390
1.362,483
1.37,1076
1.378,3582
1.386,1662
1.394,1853
1.402,1201
1.41,515
1.418,376
1.426,338
1.434,324
1.442,284
1.45,288
1.458,323
1.466,289
1.474,291
1.482,310
1.49,313
1.498,311
1.506,289
1.514,301
1.522,280
1.53,283
1.538,273
1.546,308
1.554,340
1.562,308
1.57,293
1.578,321
1.586,308
1.594,372
1.602,388
1.61,551
1.618,1412
1.626,2704
1.634,997
1.642,883
1.65,614
1.658,416
1.666,345
1.674,308
1.682,286
1.69,300
1.698,286
1.706,298
1.714,358
1.722,341
1.73,586
1.738,1766
1.746,1520
1.754,561
1.762,356
1.77,322
1.778,263
1.786,259
1.794,260
1.802,264
1.81,232
1.818,223
1.826,254
1.834,253
1.842,291
1.85,241
1.858,257
1.866,215
1.874,231
1.882,210
1.89,270
1.898,249
1.906,271
1.914,278
1.922,294
1.93,406
1.938,887
1.946,1912
1.954,862
1.962,460
1.97,482
1.978,1173
1.986,666
1.994,336
2.002,214
2.01,207
2.018,197
2.026,200
2.034,198
2.042,262
2.05,463
2.058,384
2.066,221
2.074,188
2.082,173
2.09,165
2.098,160
2.106,166
2.114,222
2.122,345
2.13,367
2.138,239
2.146,227
2.154,258
2.162,315
2.17,231
2.178,187
2.186,163
2.194,185
2.202,244
2.21,448
2.218,418
2.226,270
2.234,188
2.242,213
2.25,178
2.258,151
2.266,145
2.274,153
2.282,194
2.29,198
2.298,450
2.306,349
2.314,227
2.322,164
2.33,145
2.338,153
2.346,155
2.354,122
2.362,148
2.37,124
2.378,133
2.386,129
2.394,146
2.402,136
2.41,133
2.418,129
2.426,132
2.434,142
2.442,156
2.45,183
2.458,213
2.466,293
2.474,259
2.482,211
2.49,178
2.498,158
2.506,152
2.514,145
2.522,132
2.53,209