File: lib/math_models/mathematica/pidfiles/PID058_xrd.csv
0.45,415
0.458,377
0.466,363
0.474,353
0.482,404
0.49,834
0.498,1247
0.506,355
0.514,337
0.522,324
0.53,276
0.538,284
0.546,267
0.554,274
0.562,261
0.57,274
0.578,272
0.586,240
0.594,254
0.602,293
0.61,267
0.618,303
0.626,360
0.634,324
0.642,327
0.65,376
0.658,2109
0.666,3493
0.674,353
0.682,277
0.69,233
0.698,204
0.706,264
0.714,227
0.722,252
0.73,522
0.738,1568
0.746,277
0.754,274
0.762,275
0.77,237
0.778,211
0.786,222
0.794,213
0.802,262
0.81,300
0.818,228
0.826,199
0.834,207
0.842,204
0.85,236
0.858,296
0.866,348
0.874,397
0.882,342
0.89,293
0.898,292
0.906,257
0.914,380
0.922,965
0.93,419
0.938,438
0.946,236
0.954,230
0.962,249
0.97,263
0.978,369
0.986,590
0.994,515
1.002,290
1.01,292
1.018,225
1.026,247
1.034,274
1.042,293
1.05,260
1.058,404
1.066,321
1.074,407
1.082,504
1.09,401
1.098,442
1.106,500
1.114,603
1.122,1037
1.13,1035
1.138,532
1.146,359
1.154,347
1.162,351
1.17,567
1.178,575
1.186,353
1.194,332
1.202,313
1.21,296
1.218,331
1.226,404
1.234,541
1.242,772
1.25,2962
1.258,1978
1.266,648
1.274,628
1.282,1203
1.29,1660
1.298,1405
1.306,3641
1.314,1210
1.322,533
1.33,469
1.338,463
1.346,340
1.354,362
1.362,387
1.37,719
1.378,1243
1.386,508
1.394,474
1.402,869
1.41,979
1.418,607
1.426,465
1.434,522
1.442,593
1.45,530
1.458,452
1.466,633
1.474,1120
1.482,485
1.49,420
1.498,449
1.506,556
1.514,874
1.522,624
1.53,571
1.538,443
1.546,377
1.554,430
1.562,515
1.57,658
1.578,360
1.586,317
1.594,357
1.602,335
1.61,400
1.618,390
1.626,380
1.634,394
1.642,378
1.65,414
1.658,488
1.666,410
1.674,418
1.682,429
1.69,676
1.698,1082
1.706,820
1.714,575
1.722,636
1.73,622
1.738,427
1.746,404
1.754,393
1.762,496
1.77,798
1.778,1046
1.786,731
1.794,594
1.802,507
1.81,394
1.818,323
1.826,310
1.834,314
1.842,521
1.85,857
1.858,532
1.866,340
1.874,294
1.882,248
1.89,264
1.898,217
1.906,233
1.914,206
1.922,243
1.93,321
1.938,274
1.946,295
1.954,320
1.962,347
1.97,330
1.978,403
1.986,557
1.994,533
2.002,555
2.01,421
2.018,350
2.026,435
2.034,307
2.042,245
2.05,222
2.058,228
2.066,279
2.074,329
2.082,247
2.09,288
2.098,273
2.106,188
2.114,209
2.122,190
2.13,237
2.138,216
2.146,242
2.154,235
2.162,211
2.17,216
2.178,204
2.186,234
2.194,215
2.202,203
2.21,244
2.218,235
2.226,226
2.234,236
2.242,233
2.25,277
2.258,340
2.266,236
2.274,220
2.282,177
2.29,191
2.298,190
2.306,181
2.314,196
2.322,170
2.33,188
2.338,197
2.346,188
2.354,201
2.362,173
2.37,194
2.378,194
2.386,189
2.394,174
2.402,181
2.41,164
2.418,179
2.426,179
2.434,166
2.442,154
2.45,168
2.458,169
2.466,215
2.474,238
2.482,199
2.49,168
2.498,163
2.506,152
2.514,171
2.522,167
2.53,172