File: lib/math_models/mathematica/pidfiles/PID071_July2014_xrd.csv
0.45,689
0.458,637
0.466,635
0.474,583
0.482,565
0.49,612
0.498,534
0.506,544
0.514,545
0.522,559
0.53,555
0.538,529
0.546,497
0.554,520
0.562,462
0.57,491
0.578,498
0.586,502
0.594,799
0.602,762
0.61,480
0.618,453
0.626,442
0.634,467
0.642,448
0.65,412
0.658,418
0.666,415
0.674,424
0.682,413
0.69,438
0.698,404
0.706,429
0.714,395
0.722,365
0.73,389
0.738,373
0.746,369
0.754,378
0.762,357
0.77,371
0.778,366
0.786,384
0.794,373
0.802,417
0.81,359
0.818,347
0.826,362
0.834,361
0.842,354
0.85,350
0.858,416
0.866,2614
0.874,851
0.882,375
0.89,409
0.898,363
0.906,725
0.914,389
0.922,345
0.93,347
0.938,377
0.946,333
0.954,324
0.962,377
0.97,321
0.978,355
0.986,351
0.994,368
1.002,347
1.01,358
1.018,372
1.026,362
1.034,1516
1.042,561
1.05,370
1.058,345
1.066,374
1.074,349
1.082,384
1.09,422
1.098,373
1.106,366
1.114,388
1.122,388
1.13,397
1.138,395
1.146,355
1.154,363
1.162,349
1.17,347
1.178,410
1.186,410
1.194,1567
1.202,790
1.21,3803
1.218,1580
1.226,502
1.234,439
1.242,503
1.25,493
1.258,2244
1.266,717
1.274,403
1.282,410
1.29,419
1.298,436
1.306,449
1.314,458
1.322,448
1.33,422
1.338,447
1.346,746
1.354,1827
1.362,495
1.37,474
1.378,452
1.386,572
1.394,3357
1.402,659
1.41,478
1.418,393
1.426,493
1.434,446
1.442,451
1.45,438
1.458,393
1.466,444
1.474,471
1.482,429
1.49,411
1.498,455
1.506,447
1.514,435
1.522,425
1.53,437
1.538,462
1.546,451
1.554,420
1.562,451
1.57,475
1.578,1014
1.586,1279
1.594,435
1.602,431
1.61,417
1.618,402
1.626,505
1.634,533
1.642,384
1.65,408
1.658,420
1.666,418
1.674,399
1.682,414
1.69,393
1.698,942
1.706,1456
1.714,441
1.722,412
1.73,370
1.738,361
1.746,376
1.754,333
1.762,353
1.77,335
1.778,353
1.786,358
1.794,397
1.802,306
1.81,313
1.818,335
1.826,294
1.834,335
1.842,314
1.85,314
1.858,304
1.866,288
1.874,296
1.882,329
1.89,346
1.898,1151
1.906,875
1.914,328
1.922,322
1.93,292
1.938,284
1.946,247
1.954,282
1.962,261
1.97,305
1.978,723
1.986,571
1.994,263
2.002,260
2.01,255
2.018,346
2.026,321
2.034,237
2.042,263
2.05,252
2.058,255
2.066,404
2.074,615
2.082,232
2.09,246
2.098,234
2.106,234
2.114,199
2.122,218
2.13,226
2.138,221
2.146,232
2.154,489
2.162,468
2.17,318
2.178,218
2.186,216
2.194,210
2.202,197
2.21,203
2.218,174
2.226,192
2.234,257
2.242,347
2.25,276
2.258,198
2.266,180
2.274,173
2.282,188
2.29,169
2.298,174
2.306,200
2.314,176
2.322,186
2.33,179
2.338,192
2.346,161
2.354,181
2.362,169
2.37,182
2.378,157
2.386,192
2.394,160
2.402,167
2.41,164
2.418,183
2.426,181
2.434,163
2.442,197
2.45,166
2.458,171
2.466,203
2.474,225
2.482,191
2.49,228
2.498,235
2.506,175
2.514,175
2.522,161
2.53,164