File: lib/math_models/mathematica/pidfiles/PID071_xrd.csv
0.45,391
0.458,347
0.466,278
0.474,295
0.482,289
0.49,357
0.498,398
0.506,301
0.514,252
0.522,247
0.53,247
0.538,286
0.546,251
0.554,271
0.562,215
0.57,277
0.578,289
0.586,500
0.594,1325
0.602,477
0.61,283
0.618,290
0.626,253
0.634,224
0.642,235
0.65,248
0.658,414
0.666,566
0.674,256
0.682,232
0.69,208
0.698,213
0.706,187
0.714,211
0.722,205
0.73,240
0.738,325
0.746,228
0.754,213
0.762,202
0.77,188
0.778,224
0.786,220
0.794,214
0.802,234
0.81,216
0.818,232
0.826,234
0.834,290
0.842,375
0.85,689
0.858,2708
0.866,3085
0.874,659
0.882,421
0.89,386
0.898,499
0.906,428
0.914,238
0.922,218
0.93,209
0.938,240
0.946,229
0.954,194
0.962,193
0.97,198
0.978,201
0.986,249
0.994,243
1.002,281
1.01,264
1.018,460
1.026,1602
1.034,1106
1.042,340
1.05,216
1.058,244
1.066,220
1.074,291
1.082,318
1.09,249
1.098,249
1.106,212
1.114,270
1.122,314
1.13,305
1.138,300
1.146,284
1.154,320
1.162,348
1.17,465
1.178,801
1.186,2376
1.194,2317
1.202,6112
1.21,3291
1.218,966
1.226,641
1.234,653
1.242,1014
1.25,3376
1.258,1412
1.266,527
1.274,360
1.282,400
1.29,468
1.298,449
1.306,626
1.314,442
1.322,390
1.33,606
1.338,1757
1.346,2100
1.354,637
1.362,476
1.37,646
1.378,1858
1.386,3567
1.394,1150
1.402,554
1.41,430
1.418,325
1.426,296
1.434,261
1.442,288
1.45,278
1.458,272
1.466,298
1.474,309
1.482,290
1.49,267
1.498,261
1.506,319
1.514,293
1.522,296
1.53,286
1.538,307
1.546,308
1.554,377
1.562,678
1.57,1930
1.578,1025
1.586,412
1.594,294
1.602,241
1.61,303
1.618,489
1.626,385
1.634,284
1.642,269
1.65,269
1.658,298
1.666,278
1.674,374
1.682,740
1.69,2014
1.698,1250
1.706,497
1.714,313
1.722,310
1.73,292
1.738,246
1.746,226
1.754,252
1.762,226
1.77,278
1.778,351
1.786,326
1.794,295
1.802,248
1.81,224
1.818,221
1.826,208
1.834,220
1.842,265
1.85,266
1.858,277
1.866,313
1.874,360
1.882,1021
1.89,1636
1.898,646
1.906,330
1.914,230
1.922,207
1.93,219
1.938,202
1.946,220
1.954,328
1.962,686
1.97,896
1.978,421
1.986,283
1.994,278
2.002,338
2.01,362
2.018,232
2.026,232
2.034,205
2.042,235
2.05,409
2.058,777
2.066,391
2.074,233
2.082,197
2.09,189
2.098,179
2.106,158
2.114,171
2.122,184
2.13,325
2.138,599
2.146,602
2.154,383
2.162,213
2.17,176
2.178,178
2.186,166
2.194,147
2.202,172
2.21,156
2.218,219
2.226,344
2.234,359
2.242,199
2.25,214
2.258,186
2.266,164
2.274,130
2.282,125
2.29,140
2.298,137
2.306,119
2.314,146
2.322,144
2.33,125
2.338,124
2.346,148
2.354,117
2.362,153
2.37,161
2.378,181
2.386,131
2.394,126
2.402,162
2.41,182
2.418,145
2.426,174
2.434,158
2.442,195
2.45,275
2.458,278
2.466,183
2.474,189
2.482,223
2.49,161
2.498,158
2.506,134
2.514,104
2.522,149
2.53,108