File: lib/math_models/mathematica/pidfiles/PID057_xrd.csv
0.45,468
0.458,419
0.466,398
0.474,366
0.482,413
0.49,351
0.498,384
0.506,355
0.514,369
0.522,351
0.53,332
0.538,346
0.546,306
0.554,351
0.562,312
0.57,342
0.578,346
0.586,387
0.594,453
0.602,2065
0.61,2747
0.618,883
0.626,756
0.634,407
0.642,337
0.65,301
0.658,359
0.666,411
0.674,284
0.682,284
0.69,290
0.698,242
0.706,280
0.714,277
0.722,248
0.73,280
0.738,326
0.746,283
0.754,288
0.762,245
0.77,280
0.778,275
0.786,258
0.794,263
0.802,290
0.81,257
0.818,260
0.826,282
0.834,255
0.842,293
0.85,320
0.858,391
0.866,1181
0.874,4598
0.882,1443
0.89,468
0.898,315
0.906,278
0.914,244
0.922,226
0.93,264
0.938,248
0.946,254
0.954,284
0.962,234
0.97,232
0.978,234
0.986,252
0.994,246
1.002,260
1.01,277
1.018,260
1.026,282
1.034,285
1.042,357
1.05,603
1.058,375
1.066,286
1.074,279
1.082,274
1.09,256
1.098,278
1.106,310
1.114,288
1.122,307
1.13,261
1.138,335
1.146,282
1.154,313
1.162,312
1.17,316
1.178,332
1.186,365
1.194,410
1.202,612
1.21,1306
1.218,2928
1.226,4535
1.234,1736
1.242,1359
1.25,2787
1.258,4680
1.266,1127
1.274,471
1.282,445
1.29,446
1.298,377
1.306,475
1.314,336
1.322,357
1.33,368
1.338,333
1.346,390
1.354,556
1.362,1587
1.37,1920
1.378,913
1.386,766
1.394,1647
1.402,989
1.41,446
1.418,381
1.426,346
1.434,335
1.442,339
1.45,377
1.458,326
1.466,339
1.474,381
1.482,338
1.49,334
1.498,296
1.506,364
1.514,364
1.522,354
1.53,342
1.538,336
1.546,337
1.554,353
1.562,370
1.57,363
1.578,385
1.586,438
1.594,778
1.602,1588
1.61,1496
1.618,735
1.626,577
1.634,805
1.642,754
1.65,528
1.658,432
1.666,430
1.674,340
1.682,374
1.69,335
1.698,417
1.706,482
1.714,863
1.722,1587
1.73,1178
1.738,619
1.746,455
1.754,407
1.762,405
1.77,377
1.778,365
1.786,316
1.794,307
1.802,307
1.81,258
1.818,261
1.826,275
1.834,281
1.842,280
1.85,263
1.858,268
1.866,246
1.874,257
1.882,283
1.89,310
1.898,312
1.906,395
1.914,667
1.922,1249
1.93,1204
1.938,614
1.946,376
1.954,340
1.962,383
1.97,503
1.978,1081
1.986,702
1.994,314
2.002,263
2.01,239
2.018,232
2.026,253
2.034,348
2.042,368
2.05,259
2.058,242
2.066,222
2.074,226
2.082,221
2.09,264
2.098,326
2.106,306
2.114,245
2.122,230
2.13,216
2.138,190
2.146,210
2.154,290
2.162,315
2.17,225
2.178,262
2.186,353
2.194,335
2.202,268
2.21,237
2.218,231
2.226,218
2.234,192
2.242,208
2.25,193
2.258,225
2.266,285
2.274,290
2.282,271
2.29,212
2.298,176
2.306,176
2.314,192
2.322,168
2.33,147
2.338,168
2.346,186
2.354,163
2.362,161
2.37,160
2.378,149
2.386,117
2.394,130
2.402,144
2.41,137
2.418,174
2.426,149
2.434,160
2.442,230
2.45,259
2.458,199
2.466,192
2.474,208
2.482,180
2.49,187
2.498,180
2.506,217
2.514,232
2.522,175
2.53,162